#isoforms=['exon:trans3:3_exon:trans3:2_exon:trans3:1','exon:trans2:3_exon:trans2:2_exon:trans2:1']	exon_lens=('exon:trans3:3',300),('exon:trans3:2',500),('exon:trans3:1',250),('exon:trans2:3',300),('exon:trans2:2',600),('exon:trans2:1',250)	iters=5000	burn_in=500	lag=10	percent_accept=75.82	proposal_type=drift	counts=(0,0):11,(0,1):1683,(1,0):171,(1,1):1005	assigned_counts=0:274,1:2585	chrom=test1	strand=-	mRNA_starts=3000,3000	mRNA_ends=5299,5299
sampled_psi	log_score
0.1043,0.8957	-20764.33
0.1068,0.8932	-20789.86
0.1116,0.8884	-20783.61
0.0990,0.9010	-20753.78
0.1164,0.8836	-20816.76
0.1057,0.8943	-20817.73
0.0945,0.9055	-20761.42
0.1054,0.8946	-20749.36
0.0904,0.9096	-20737.53
0.1149,0.8851	-20802.42
0.1171,0.8829	-20786.51
0.1099,0.8901	-20814.87
0.1016,0.8984	-20751.40
0.1005,0.8995	-20762.41
0.1041,0.8959	-20777.25
0.1164,0.8836	-20780.28
0.1010,0.8990	-20733.94
0.1094,0.8906	-20758.32
0.1131,0.8869	-20777.60
0.1031,0.8969	-20747.06
0.1137,0.8863	-20790.01
0.1195,0.8805	-20793.08
0.0987,0.9013	-20775.94
0.1043,0.8957	-20757.88
0.0994,0.9006	-20740.52
0.1132,0.8868	-20798.20
0.1159,0.8841	-20810.64
0.1028,0.8972	-20749.22
0.1036,0.8964	-20796.73
0.1076,0.8924	-20804.62
0.1041,0.8959	-20796.63
0.1088,0.8912	-20772.95
0.0958,0.9042	-20722.89
0.1049,0.8951	-20766.47
0.1202,0.8798	-20858.94
0.1118,0.8882	-20793.99
0.1036,0.8964	-20777.30
0.1062,0.8938	-20798.44
0.0987,0.9013	-20775.95
0.1065,0.8935	-20723.96
0.1142,0.8858	-20818.75
0.1066,0.8934	-20787.75
0.1037,0.8963	-20757.88
0.1081,0.8919	-20756.04
0.1108,0.8892	-20787.72
0.0969,0.9031	-20760.81
0.1169,0.8831	-20794.54
0.1136,0.8864	-20773.57
0.0950,0.9050	-20711.68
0.1155,0.8845	-20812.65
0.1074,0.8926	-20745.35
0.1019,0.8981	-20753.57
0.1171,0.8829	-20776.41
0.1072,0.8928	-20749.57
0.1053,0.8947	-20783.59
0.1063,0.8937	-20757.97
0.1112,0.8888	-20812.68
0.1112,0.8888	-20779.42
0.1056,0.8944	-20755.79
0.1092,0.8908	-20783.48
0.1097,0.8903	-20798.15
0.0996,0.9004	-20788.95
0.1194,0.8806	-20813.03
0.1035,0.8965	-20753.56
0.1038,0.8962	-20755.72
0.1028,0.8972	-20777.39
0.1163,0.8837	-20780.25
0.1080,0.8920	-20796.13
0.1118,0.8882	-20791.92
0.1069,0.8931	-20789.86
0.1095,0.8905	-20779.29
0.1100,0.8900	-20773.05
0.1045,0.8955	-20738.55
0.1067,0.8933	-20800.50
0.1125,0.8875	-20798.16
0.0996,0.9004	-20758.13
0.1085,0.8915	-20772.93
0.1155,0.8845	-20804.51
0.1112,0.8888	-20816.84
0.1098,0.8902	-20791.87
0.1051,0.8949	-20760.04
0.0992,0.9008	-20718.47
0.1176,0.8824	-20756.37
0.1137,0.8863	-20794.13
0.1090,0.8910	-20791.87
0.0915,0.9085	-20718.85
0.1005,0.8995	-20738.30
0.1060,0.8940	-20792.07
0.1076,0.8924	-20734.81
0.1116,0.8884	-20783.61
0.1124,0.8876	-20781.63
0.0917,0.9083	-20730.28
0.1052,0.8948	-20768.61
0.0953,0.9047	-20749.94
0.1126,0.8874	-20781.65
0.1086,0.8914	-20770.83
0.1017,0.8983	-20753.58
0.0967,0.9033	-20700.51
0.1086,0.8914	-20777.15
0.1049,0.8951	-20792.20
0.1091,0.8909	-20793.97
0.1048,0.8952	-20757.89
0.1048,0.8952	-20766.47
0.1072,0.8928	-20764.40
0.0961,0.9039	-20734.09
0.1064,0.8936	-20743.07
0.1196,0.8804	-20847.00
0.1074,0.8926	-20772.89
0.1030,0.8970	-20753.56
0.1013,0.8987	-20766.70
0.1095,0.8905	-20817.02
0.1083,0.8917	-20756.05
0.1146,0.8854	-20788.08
0.1065,0.8935	-20777.13
0.1091,0.8909	-20737.28
0.0957,0.9043	-20758.83
0.1150,0.8850	-20786.11
0.1056,0.8944	-20772.88
0.1017,0.8983	-20736.15
0.0959,0.9041	-20758.79
0.1001,0.8999	-20771.24
0.1099,0.8901	-20814.88
0.1172,0.8828	-20794.60
0.1011,0.8989	-20740.50
0.1035,0.8965	-20766.51
0.1165,0.8835	-20806.64
0.1120,0.8880	-20791.93
0.1131,0.8869	-20765.24
0.1212,0.8788	-20841.07
0.1057,0.8943	-20783.56
0.1016,0.8984	-20788.45
0.1091,0.8909	-20798.18
0.1167,0.8833	-20839.04
0.1043,0.8957	-20775.08
0.1080,0.8920	-20764.46
0.1098,0.8902	-20758.38
0.0976,0.9024	-20736.19
0.1027,0.8973	-20770.90
0.1164,0.8836	-20774.19
0.0981,0.9019	-20725.06
0.1153,0.8847	-20794.30
0.1182,0.8818	-20810.87
0.1136,0.8864	-20761.25
0.1025,0.8975	-20742.71
0.1034,0.8966	-20785.95
0.0970,0.9030	-20747.40
0.0966,0.9034	-20747.46
0.1129,0.8871	-20787.87
0.1072,0.8928	-20758.04
0.0998,0.9002	-20782.30
0.1043,0.8957	-20792.29
0.1086,0.8914	-20770.84
0.1065,0.8935	-20798.40
0.0985,0.9015	-20793.72
0.1074,0.8926	-20800.42
0.0945,0.9055	-20774.96
0.1013,0.8987	-20760.15
0.1147,0.8853	-20767.67
0.1139,0.8861	-20777.72
0.0957,0.9043	-20756.59
0.1098,0.8902	-20760.47
0.1018,0.8982	-20768.82
0.0980,0.9020	-20767.23
0.1050,0.8950	-20768.61
0.1150,0.8850	-20779.98
0.1031,0.8969	-20757.88
0.1113,0.8887	-20777.35
0.0964,0.9036	-20747.48
0.1063,0.8937	-20785.65
0.1052,0.8948	-20772.89
0.1133,0.8867	-20781.74
0.1148,0.8852	-20800.37
0.1181,0.8819	-20764.60
0.1064,0.8936	-20751.59
0.1010,0.8990	-20747.05
0.0950,0.9050	-20734.21
0.1109,0.8891	-20748.18
0.0970,0.9030	-20749.62
0.1035,0.8965	-20814.00
0.1127,0.8873	-20779.60
0.1216,0.8784	-20777.84
0.0944,0.9056	-20759.18
0.1046,0.8954	-20736.41
0.1064,0.8936	-20747.34
0.1121,0.8879	-20769.17
0.1212,0.8788	-20805.42
0.1252,0.8748	-20781.23
0.1004,0.8996	-20771.19
0.0962,0.9038	-20745.27
0.1048,0.8952	-20785.77
0.1054,0.8946	-20751.50
0.1074,0.8926	-20760.18
0.1100,0.8900	-20816.96
0.1035,0.8965	-20755.72
0.1030,0.8970	-20790.35
0.1044,0.8956	-20770.78
0.1003,0.8997	-20769.01
0.0960,0.9040	-20774.46
0.0973,0.9027	-20742.89
0.1110,0.8890	-20766.92
0.1120,0.8880	-20796.07
0.0995,0.9005	-20744.92
0.1024,0.8976	-20744.88
0.1066,0.8934	-20762.24
0.1096,0.8904	-20802.34
0.1098,0.8902	-20796.05
0.0990,0.9010	-20760.42
0.1002,0.8998	-20751.47
0.1109,0.8891	-20773.15
0.1105,0.8895	-20754.33
0.1094,0.8906	-20766.70
0.0934,0.9066	-20750.39
0.1172,0.8828	-20790.57
0.0987,0.9013	-20773.72
0.1085,0.8915	-20762.41
0.1144,0.8856	-20824.89
0.1082,0.8918	-20783.46
0.1067,0.8933	-20772.87
0.1154,0.8846	-20833.01
0.0947,0.9053	-20725.23
0.1210,0.8790	-20795.46
0.1062,0.8938	-20772.87
0.0996,0.9004	-20762.53
0.1119,0.8881	-20783.64
0.1056,0.8944	-20736.56
0.0922,0.9078	-20721.02
0.1088,0.8912	-20775.06
0.1084,0.8916	-20791.89
0.1092,0.8908	-20756.19
0.0921,0.9079	-20725.62
0.0976,0.9024	-20738.41
0.0976,0.9024	-20733.97
0.1010,0.8990	-20766.72
0.1153,0.8847	-20786.16
0.1172,0.8828	-20818.83
0.0858,0.9142	-20744.05
0.0957,0.9043	-20752.10
0.1018,0.8982	-20766.64
0.0979,0.9021	-20753.93
0.1254,0.8746	-20837.65
0.0991,0.9009	-20733.91
0.1045,0.8955	-20742.85
0.1014,0.8986	-20784.14
0.1095,0.8905	-20791.87
0.0987,0.9013	-20727.28
0.1089,0.8911	-20751.94
0.1082,0.8918	-20747.61
0.0983,0.9017	-20760.52
0.1075,0.8925	-20775.01
0.1237,0.8763	-20817.80
0.1057,0.8943	-20757.93
0.1091,0.8909	-20777.17
0.1120,0.8880	-20787.79
0.1038,0.8962	-20751.41
0.1129,0.8871	-20763.13
0.1146,0.8854	-20765.58
0.1049,0.8951	-20772.90
0.1050,0.8950	-20790.05
0.1059,0.8941	-20762.21
0.1091,0.8909	-20802.37
0.1164,0.8836	-20802.57
0.1107,0.8893	-20793.96
0.1101,0.8899	-20754.25
0.1085,0.8915	-20728.71
0.1012,0.8988	-20786.36
0.1143,0.8857	-20798.27
0.1092,0.8908	-20796.07
0.1083,0.8917	-20796.11
0.1048,0.8952	-20734.30
0.1123,0.8877	-20816.76
0.1107,0.8893	-20762.71
0.0990,0.9010	-20758.21
0.1121,0.8879	-20785.73
0.1010,0.8990	-20762.35
0.0967,0.9033	-20785.43
0.1026,0.8974	-20801.26
0.1054,0.8946	-20779.30
0.0997,0.9003	-20760.31
0.1094,0.8906	-20758.32
0.0939,0.9061	-20747.99
0.1036,0.8964	-20755.72
0.1155,0.8845	-20796.36
0.0969,0.9031	-20771.96
0.1158,0.8842	-20814.70
0.1090,0.8910	-20756.16
0.0998,0.9002	-20733.91
0.0956,0.9044	-20722.91
0.1011,0.8989	-20757.98
0.1062,0.8938	-20762.22
0.0940,0.9060	-20757.04
0.1168,0.8832	-20804.65
0.0959,0.9041	-20749.81
0.0996,0.9004	-20773.53
0.1141,0.8859	-20767.53
0.1107,0.8893	-20785.62
0.1030,0.8970	-20755.72
0.1244,0.8756	-20790.64
0.1021,0.8979	-20751.39
0.0964,0.9036	-20758.67
0.1124,0.8876	-20794.03
0.1131,0.8869	-20748.77
0.0957,0.9043	-20729.64
0.1120,0.8880	-20758.79
0.1070,0.8930	-20791.98
0.0949,0.9051	-20752.28
0.0952,0.9048	-20776.98
0.1164,0.8836	-20794.47
0.1063,0.8937	-20779.26
0.1059,0.8941	-20732.35
0.1140,0.8860	-20833.11
0.0898,0.9102	-20760.89
0.1035,0.8965	-20757.88
0.1048,0.8952	-20785.78
0.0960,0.9040	-20747.55
0.1053,0.8947	-20764.33
0.1009,0.8991	-20766.74
0.0995,0.9005	-20740.51
0.0987,0.9013	-20738.34
0.1135,0.8865	-20787.94
0.1144,0.8856	-20816.71
0.0935,0.9065	-20750.37
0.1179,0.8821	-20786.69
0.1089,0.8911	-20783.47
0.0952,0.9048	-20756.72
0.1198,0.8802	-20771.22
0.1083,0.8917	-20770.82
0.1021,0.8979	-20755.74
0.1020,0.8980	-20747.04
0.1123,0.8877	-20777.48
0.1119,0.8881	-20771.21
0.1154,0.8846	-20792.28
0.1159,0.8841	-20800.48
0.0998,0.9002	-20758.11
0.1049,0.8951	-20760.04
0.1078,0.8922	-20743.31
0.1030,0.8970	-20788.19
0.1015,0.8985	-20784.12
0.1209,0.8791	-20825.19
0.1118,0.8882	-20789.85
0.1070,0.8930	-20760.15
0.1154,0.8846	-20828.94
0.0930,0.9070	-20761.88
0.0927,0.9073	-20714.09
0.1170,0.8830	-20786.47
0.1092,0.8908	-20810.76
0.1199,0.8801	-20817.10
0.0996,0.9004	-20769.13
0.0987,0.9013	-20702.95
0.1025,0.8975	-20770.92
0.1029,0.8971	-20716.75
0.1208,0.8792	-20759.67
0.0956,0.9044	-20767.84
0.0978,0.9022	-20756.17
0.1035,0.8965	-20744.92
0.1066,0.8934	-20751.61
0.1175,0.8825	-20798.68
0.1082,0.8918	-20770.81
0.1112,0.8888	-20804.36
0.1129,0.8871	-20763.14
0.1184,0.8816	-20802.86
0.0998,0.9002	-20771.29
0.1112,0.8888	-20758.63
0.1061,0.8939	-20783.53
0.1027,0.8973	-20799.07
0.1050,0.8950	-20777.19
0.1154,0.8846	-20820.79
0.0961,0.9039	-20740.80
0.1056,0.8944	-20762.20
0.1088,0.8912	-20789.78
0.1115,0.8885	-20775.31
0.1147,0.8853	-20792.18
0.1029,0.8971	-20753.56
0.1035,0.8965	-20766.51
0.1028,0.8972	-20786.05
0.1085,0.8915	-20796.10
0.1036,0.8964	-20757.88
0.0983,0.9017	-20756.10
0.0978,0.9022	-20767.28
0.0988,0.9012	-20742.76
0.1053,0.8947	-20766.47
0.1110,0.8890	-20777.33
0.0981,0.9019	-20756.13
0.0944,0.9056	-20763.71
0.1003,0.8997	-20771.21
0.1041,0.8959	-20798.78
0.1101,0.8899	-20777.24
0.1036,0.8964	-20775.14
0.1035,0.8965	-20783.78
0.0999,0.9001	-20727.31
0.1169,0.8831	-20741.95
0.1058,0.8942	-20785.68
0.0969,0.9031	-20756.33
0.1167,0.8833	-20820.83
0.1072,0.8928	-20743.20
0.1108,0.8892	-20781.47
0.1227,0.8773	-20774.31
0.0992,0.9008	-20758.18
0.1187,0.8813	-20796.89
0.1052,0.8948	-20764.33
0.1177,0.8823	-20790.67
0.1097,0.8903	-20741.62
0.1076,0.8924	-20764.43
0.1068,0.8932	-20758.01
0.1084,0.8916	-20806.65
0.1021,0.8979	-20781.82
0.1155,0.8845	-20786.18
0.1111,0.8889	-20791.89
0.1009,0.8991	-20740.49
0.1132,0.8868	-20789.96
0.1142,0.8858	-20804.41
0.1079,0.8921	-20768.68
0.1233,0.8767	-20778.48
0.1099,0.8901	-20768.85
0.1087,0.8913	-20777.15
0.1140,0.8860	-20783.90
0.1036,0.8964	-20744.93
0.1166,0.8834	-20800.57
0.1177,0.8823	-20794.69
0.1071,0.8929	-20770.76
0.0991,0.9009	-20762.61
0.0947,0.9053	-20736.51
0.0981,0.9019	-20762.77
0.1091,0.8909	-20747.77
0.1004,0.8996	-20773.38
0.1090,0.8910	-20791.87
0.1093,0.8907	-20760.40
0.0970,0.9030	-20754.08
0.0898,0.9102	-20777.08
0.0984,0.9016	-20713.99
0.1022,0.8978	-20757.91
0.1102,0.8898	-20789.78
0.1094,0.8906	-20785.58
0.0946,0.9054	-20759.12
0.1033,0.8967	-20779.49
0.0952,0.9048	-20720.68
0.0937,0.9063	-20736.70
0.1129,0.8871	-20796.12
0.1197,0.8803	-20791.12
0.1038,0.8962	-20779.44
0.0915,0.9085	-20737.20
0.1190,0.8810	-20770.93
0.1115,0.8885	-20781.53
0.1178,0.8822	-20808.80
0.1114,0.8886	-20760.74
0.1056,0.8944	-20740.84
0.1119,0.8881	-20783.64
0.1065,0.8935	-20749.47
0.1147,0.8853	-20765.62
0.1186,0.8814	-20752.77
0.1168,0.8832	-20790.48
0.1078,0.8922	-20791.92
0.0993,0.9007	-20771.39
0.0987,0.9013	-20725.07
0.1010,0.8990	-20753.61
0.0969,0.9031	-20747.40
0.0982,0.9018	-20745.02
0.1086,0.8914	-20764.52
0.1023,0.8977	-20755.73
0.1118,0.8882	-20808.50
0.1058,0.8942	-20770.74
0.0971,0.9029	-20749.60
0.1048,0.8952	-20766.47
0.1112,0.8888	-20789.81
0.1016,0.8984	-20755.76
0.1158,0.8842	-20808.60
0.1146,0.8854	-20783.99
0.1010,0.8990	-20731.75
0.1050,0.8950	-20753.61
0.0989,0.9011	-20733.91
0.1120,0.8880	-20810.56
0.1115,0.8885	-20791.91
0.1181,0.8819	-20824.93
0.1057,0.8943	-20770.74
0.1165,0.8835	-20784.35
0.0981,0.9019	-20725.06
0.1024,0.8976	-20760.07
0.1115,0.8885	-20793.98
0.0997,0.9003	-20742.71
0.1200,0.8800	-20797.19
0.1133,0.8867	-20796.14
0.1124,0.8876	-20810.55
0.1104,0.8896	-20775.18
0.1042,0.8958	-20781.55
0.1036,0.8964	-20760.03
0.1102,0.8898	-20777.24
0.1073,0.8927	-20796.19
0.1088,0.8912	-20804.50
0.1221,0.8779	-20764.21
0.1001,0.8999	-20738.30
0.1105,0.8895	-20796.04
0.1016,0.8984	-20703.44
0.1085,0.8915	-20756.08
0.1072,0.8928	-20804.68
0.1119,0.8881	-20767.06
0.1150,0.8850	-20769.77
0.1084,0.8916	-20775.04
0.1158,0.8842	-20774.05
0.1044,0.8956	-20800.86
0.1127,0.8873	-20794.04
0.0997,0.9003	-20793.33
0.1106,0.8894	-20779.37
0.1105,0.8895	-20731.40
0.1031,0.8969	-20835.77
0.1059,0.8941	-20807.00
0.1131,0.8869	-20769.36
0.1026,0.8974	-20788.25
0.1059,0.8941	-20747.27
0.0851,0.9149	-20756.27
0.1003,0.8997	-20758.04
0.1098,0.8902	-20791.87
0.1058,0.8942	-20789.95
0.1243,0.8757	-20814.04
0.1036,0.8964	-20766.51
0.1030,0.8970	-20777.36
0.1253,0.8747	-20824.02
0.0959,0.9041	-20734.11
0.1051,0.8949	-20742.91
0.1075,0.8925	-20794.05
0.1210,0.8790	-20811.32
0.1215,0.8785	-20787.69
0.1061,0.8939	-20745.16
0.1032,0.8968	-20788.16
0.1138,0.8862	-20796.18
0.1099,0.8901	-20773.05
0.1008,0.8992	-20782.08
0.1270,0.8730	-20830.25
0.1142,0.8858	-20763.45
0.1001,0.8999	-20777.84
0.0960,0.9040	-20776.70
0.1093,0.8907	-20777.18
0.1184,0.8816	-20814.91
0.1129,0.8871	-20802.30
0.1023,0.8977	-20775.29
0.1052,0.8948	-20796.43
0.1104,0.8896	-20793.96
0.0959,0.9041	-20752.05
0.1007,0.8993	-20742.68
0.1151,0.8849	-20759.59
0.1120,0.8880	-20794.00
0.1042,0.8958	-20787.99
0.0973,0.9027	-20733.98
0.1002,0.8998	-20782.20
0.1074,0.8926	-20760.18
0.0938,0.9062	-20725.34
0.1259,0.8741	-20820.30
0.1217,0.8783	-20795.66
0.0988,0.9012	-20740.55
0.1141,0.8859	-20792.11
0.1199,0.8801	-20854.97
0.0914,0.9086	-20757.92
0.1258,0.8742	-20808.63
0.1020,0.8980	-20753.57
0.1071,0.8929	-20755.91
0.1148,0.8852	-20806.50
0.1175,0.8825	-20806.76
0.0932,0.9068	-20736.80
0.1098,0.8902	-20766.75
0.1028,0.8972	-20755.72
0.0993,0.9007	-20720.67
0.1174,0.8826	-20820.86
0.1094,0.8906	-20739.45
0.0996,0.9004	-20751.52
0.1022,0.8978	-20764.43
0.0988,0.9012	-20742.76
0.0968,0.9032	-20756.36
0.1124,0.8876	-20771.29
0.1033,0.8967	-20762.20
0.0964,0.9036	-20760.90
0.1113,0.8887	-20752.43
0.1002,0.8998	-20744.89
0.1008,0.8992	-20775.50
0.1038,0.8962	-20760.03
0.1239,0.8761	-20833.49
0.1100,0.8900	-20773.05
0.1120,0.8880	-20800.21
0.1010,0.8990	-20733.94
0.0998,0.9002	-20755.90
0.1072,0.8928	-20772.88
0.1125,0.8875	-20791.97
0.1115,0.8885	-20804.36
0.1012,0.8988	-20757.97
0.1183,0.8817	-20794.81
0.0880,0.9120	-20726.66
0.0995,0.9005	-20758.13
0.1041,0.8959	-20794.47
0.1175,0.8825	-20816.83
0.1089,0.8911	-20775.06
0.1097,0.8903	-20837.93
0.1128,0.8872	-20756.93
0.1009,0.8991	-20736.12
0.1046,0.8954	-20768.62
0.1070,0.8930	-20768.63
0.1150,0.8850	-20806.51
0.1134,0.8866	-20783.82
0.1099,0.8901	-20835.79
0.0959,0.9041	-20778.98
0.1032,0.8968	-20803.28
0.0989,0.9011	-20744.96
0.1049,0.8951	-20783.62
0.1041,0.8959	-20779.40
0.1124,0.8876	-20794.02
0.1128,0.8872	-20845.62
0.1058,0.8942	-20807.03
0.1005,0.8995	-20766.80
0.1045,0.8955	-20755.74
0.1101,0.8899	-20796.05
0.0930,0.9070	-20736.84
0.1050,0.8950	-20762.19
0.0990,0.9010	-20736.12
0.1028,0.8972	-20790.38
0.0985,0.9015	-20773.78
0.1022,0.8978	-20792.67
0.0965,0.9035	-20742.99
0.1112,0.8888	-20806.44
0.1037,0.8963	-20772.97
0.1174,0.8826	-20804.73
0.1146,0.8854	-20784.00
0.1071,0.8929	-20747.44
0.1098,0.8902	-20770.94
0.1014,0.8986	-20747.04
0.1098,0.8902	-20783.49
0.0930,0.9070	-20780.12
0.1164,0.8836	-20802.58
0.1132,0.8868	-20785.85
0.1204,0.8796	-20819.16
0.1018,0.8982	-20760.11
0.1020,0.8980	-20751.39
0.1059,0.8941	-20779.28
0.1129,0.8871	-20781.69
0.1040,0.8960	-20766.49
0.1099,0.8901	-20808.60
0.1145,0.8855	-20763.51
0.1012,0.8988	-20797.27
0.1128,0.8872	-20812.61
0.1169,0.8831	-20839.03
0.1071,0.8929	-20796.20
0.1142,0.8858	-20773.68
0.0996,0.9004	-20722.90
0.1031,0.8969	-20801.15
0.1234,0.8766	-20831.45
0.1035,0.8965	-20775.15
0.1083,0.8917	-20751.84
0.1092,0.8908	-20787.67
0.1212,0.8788	-20799.48
0.0993,0.9007	-20778.00
0.1195,0.8805	-20795.08
0.1104,0.8896	-20787.70
0.1171,0.8829	-20766.29
0.1047,0.8953	-20751.45
0.0985,0.9015	-20733.92
0.0974,0.9026	-20729.52
0.0998,0.9002	-20766.89
0.0933,0.9067	-20734.51
0.1143,0.8857	-20810.56
0.1077,0.8923	-20760.21
0.1092,0.8908	-20785.57
0.1139,0.8861	-20787.99
0.1042,0.8958	-20803.05
0.0978,0.9022	-20736.18
0.1085,0.8915	-20791.89
0.1156,0.8844	-20800.45
0.1153,0.8847	-20816.72
0.0977,0.9023	-20742.85
0.1081,0.8919	-20760.25
0.0969,0.9031	-20745.17
0.1082,0.8918	-20772.92
0.1260,0.8740	-20816.45
0.1088,0.8912	-20804.50
0.1018,0.8982	-20784.07
0.1018,0.8982	-20731.80
0.1066,0.8934	-20747.36
0.1168,0.8832	-20804.65
0.1095,0.8905	-20779.29
0.1105,0.8895	-20791.87
0.1013,0.8987	-20747.05
0.0937,0.9063	-20745.78
0.1127,0.8873	-20810.55
0.1139,0.8861	-20796.20
0.1052,0.8948	-20777.17
0.1157,0.8843	-20818.76
0.0932,0.9068	-20775.49
0.0969,0.9031	-20754.10
0.1251,0.8749	-20845.38
0.1220,0.8780	-20797.71
0.1176,0.8824	-20760.40
0.1023,0.8977	-20766.59
0.0999,0.9001	-20760.29
0.1070,0.8930	-20781.36
0.1057,0.8943	-20802.78
0.0948,0.9052	-20747.80
0.1053,0.8947	-20787.86
0.1128,0.8872	-20785.79
0.1118,0.8882	-20789.85
0.1117,0.8883	-20814.72
0.1007,0.8993	-20773.33
0.1099,0.8901	-20754.21
0.1063,0.8937	-20762.23
0.0992,0.9008	-20789.07
0.0954,0.9046	-20749.91
0.1028,0.8972	-20820.70
0.1121,0.8879	-20789.87
0.1194,0.8806	-20795.04
0.1058,0.8942	-20751.53
0.1008,0.8992	-20788.63
0.0978,0.9022	-20762.83
0.1004,0.8996	-20797.50
0.1186,0.8814	-20788.86
0.1089,0.8911	-20764.56
0.1032,0.8968	-20783.83
0.1098,0.8902	-20762.57
0.1064,0.8936	-20736.70
0.1109,0.8891	-20802.29
0.1038,0.8962	-20766.50
0.1158,0.8842	-20798.44
0.1113,0.8887	-20785.67
0.1160,0.8840	-20788.31
0.1010,0.8990	-20771.10
0.1123,0.8877	-20781.62
0.1057,0.8943	-20772.88
0.1042,0.8958	-20744.97
0.1109,0.8891	-20744.01
0.1073,0.8927	-20775.00
0.0869,0.9131	-20762.33
0.0989,0.9011	-20725.07
0.1084,0.8916	-20798.21
0.1092,0.8908	-20772.98
0.1074,0.8926	-20749.59
0.1131,0.8869	-20771.42
0.0939,0.9061	-20720.79
0.1197,0.8803	-20815.08
0.1077,0.8923	-20794.04
0.1076,0.8924	-20764.43
0.1061,0.8939	-20777.14
0.1040,0.8960	-20775.11
0.1133,0.8867	-20785.86
0.0959,0.9041	-20754.30
0.1142,0.8858	-20820.80
0.1175,0.8825	-20786.60
0.1116,0.8884	-20791.91
0.1066,0.8934	-20781.38
0.1024,0.8976	-20740.54
0.0911,0.9089	-20741.93
0.1058,0.8942	-20772.88
0.1126,0.8874	-20794.04
0.1099,0.8901	-20773.04
0.1108,0.8892	-20781.46
0.1040,0.8960	-20766.49
0.0974,0.9026	-20816.37
0.0983,0.9017	-20756.09
0.1101,0.8899	-20808.59
0.1095,0.8905	-20800.25
0.1082,0.8918	-20762.38
0.1293,0.8707	-20844.23
0.1159,0.8841	-20808.61
0.0972,0.9028	-20765.19
0.1051,0.8949	-20781.47
0.0961,0.9039	-20720.64
0.1102,0.8898	-20773.07
0.1298,0.8702	-20821.49
0.1113,0.8887	-20814.75
0.1083,0.8917	-20789.79
0.1025,0.8975	-20775.26
0.0935,0.9065	-20764.00
0.0986,0.9014	-20767.12
0.1241,0.8759	-20788.56
0.1170,0.8830	-20792.55
0.1141,0.8859	-20790.06
0.1016,0.8984	-20760.12
0.1041,0.8959	-20768.64
0.1164,0.8836	-20774.20
0.1079,0.8921	-20804.58
0.1137,0.8863	-20742.79
0.1133,0.8867	-20775.57
0.1047,0.8953	-20717.10
0.0988,0.9012	-20725.07
0.1208,0.8792	-20813.26
0.1035,0.8965	-20762.20
0.1072,0.8928	-20753.80
0.1050,0.8950	-20734.32
0.1087,0.8913	-20804.51
0.0971,0.9029	-20720.62
0.0963,0.9037	-20774.36
0.1188,0.8812	-20796.92
0.1158,0.8842	-20796.40
0.0954,0.9046	-20756.67
0.1176,0.8824	-20814.83
0.1098,0.8902	-20789.77
0.0987,0.9013	-20764.89
0.1077,0.8923	-20783.47
0.0997,0.9003	-20821.91
0.0936,0.9064	-20732.18
0.1270,0.8730	-20807.12
0.1196,0.8804	-20811.07
0.1046,0.8954	-20770.77
0.1109,0.8891	-20818.94
0.1151,0.8849	-20757.56
0.0940,0.9060	-20754.78
0.1136,0.8864	-20781.78
0.1042,0.8958	-20775.09
0.1039,0.8961	-20770.80
0.1144,0.8856	-20816.71
0.1077,0.8923	-20758.10
0.1087,0.8913	-20741.38
0.1130,0.8870	-20804.37
0.1001,0.8999	-20736.11
0.1122,0.8878	-20808.49
0.1083,0.8917	-20810.87
0.1080,0.8920	-20772.91
0.1105,0.8895	-20793.96
0.1103,0.8897	-20764.74
0.1116,0.8884	-20791.91
0.1092,0.8908	-20741.50
0.1053,0.8947	-20747.22
