#isoforms=['exon:trans3:3_exon:trans3:2_exon:trans3:1','exon:trans2:3_exon:trans2:2_exon:trans2:1']	exon_lens=('exon:trans3:3',300),('exon:trans3:2',500),('exon:trans3:1',250),('exon:trans2:3',300),('exon:trans2:2',600),('exon:trans2:1',250)	iters=5000	burn_in=500	lag=10	percent_accept=75.85	proposal_type=drift	counts=(0,0):11,(0,1):1683,(1,0):171,(1,1):1005	assigned_counts=0:283,1:2576	chrom=test1	strand=-	mRNA_starts=3000,3000	mRNA_ends=5299,5299
sampled_psi	log_score
0.1093,0.8907	-20789.77
0.1033,0.8967	-20740.59
0.1108,0.8892	-20781.47
0.0993,0.9007	-20758.16
0.1110,0.8890	-20758.60
0.0936,0.9064	-20798.04
0.1222,0.8778	-20827.34
0.1002,0.8998	-20740.50
0.1192,0.8808	-20825.01
0.1046,0.8954	-20764.33
0.1090,0.8910	-20751.96
0.0908,0.9092	-20774.27
0.1116,0.8884	-20787.76
0.1112,0.8888	-20756.56
0.1127,0.8873	-20787.85
0.0990,0.9010	-20793.52
0.1001,0.8999	-20753.67
0.1055,0.8945	-20768.61
0.0954,0.9046	-20772.39
0.1143,0.8857	-20779.86
0.1049,0.8951	-20732.16
0.1087,0.8913	-20789.78
0.1073,0.8927	-20779.24
0.1091,0.8909	-20772.97
0.1052,0.8948	-20777.18
0.1048,0.8952	-20770.76
0.1014,0.8986	-20757.95
0.1089,0.8911	-20768.75
0.1074,0.8926	-20728.42
0.1129,0.8871	-20794.06
0.1032,0.8968	-20777.34
0.0939,0.9061	-20711.72
0.1146,0.8854	-20757.43
0.1073,0.8927	-20764.41
0.1046,0.8954	-20779.35
0.1162,0.8838	-20784.28
0.1060,0.8940	-20775.01
0.1141,0.8859	-20771.61
0.1167,0.8833	-20782.37
0.1136,0.8864	-20775.62
0.1105,0.8895	-20800.22
0.0948,0.9052	-20774.87
0.1109,0.8891	-20771.07
0.1056,0.8944	-20794.25
0.1106,0.8894	-20766.86
0.1060,0.8940	-20768.61
0.1092,0.8908	-20793.97
0.0981,0.9019	-20751.69
0.1010,0.8990	-20775.47
0.1071,0.8929	-20785.60
0.1061,0.8939	-20804.84
0.1159,0.8841	-20826.90
0.0912,0.9088	-20764.86
0.1035,0.8965	-20766.51
0.1023,0.8977	-20755.73
0.0999,0.9001	-20777.88
0.1081,0.8919	-20804.57
0.1009,0.8991	-20768.93
0.0938,0.9062	-20741.22
0.1182,0.8818	-20847.04
0.1130,0.8870	-20773.47
0.1056,0.8944	-20757.93
0.1012,0.8988	-20777.63
0.1118,0.8882	-20773.27
0.1066,0.8934	-20777.12
0.1123,0.8877	-20820.90
0.0999,0.9001	-20764.69
0.1036,0.8964	-20777.30
0.1045,0.8955	-20760.03
0.0991,0.9009	-20789.10
0.1115,0.8885	-20793.98
0.1054,0.8946	-20764.33
0.1051,0.8949	-20740.76
0.1113,0.8887	-20773.20
0.1157,0.8843	-20804.53
0.0994,0.9006	-20729.50
0.1127,0.8873	-20777.54
0.1133,0.8867	-20773.50
0.1159,0.8841	-20767.97
0.1107,0.8893	-20758.55
0.1043,0.8957	-20738.53
0.0940,0.9060	-20745.71
0.1086,0.8914	-20739.26
0.1075,0.8925	-20815.23
0.1104,0.8896	-20808.56
0.1183,0.8817	-20776.73
0.0957,0.9043	-20738.62
0.0925,0.9075	-20759.78
0.1108,0.8892	-20785.63
0.1149,0.8851	-20747.29
0.1124,0.8876	-20771.30
0.1060,0.8940	-20766.48
0.1004,0.8996	-20764.62
0.1174,0.8826	-20774.46
0.1072,0.8928	-20743.21
0.0973,0.9027	-20767.40
0.1167,0.8833	-20834.99
0.1244,0.8756	-20778.93
0.1073,0.8927	-20811.02
0.1086,0.8914	-20766.62
0.1122,0.8878	-20773.32
0.1046,0.8954	-20751.45
0.1002,0.8998	-20753.67
0.0994,0.9006	-20780.18
0.1144,0.8856	-20775.78
0.1136,0.8864	-20798.22
0.1035,0.8965	-20740.61
0.1186,0.8814	-20822.95
0.0969,0.9031	-20731.78
0.1134,0.8866	-20796.15
0.1005,0.8995	-20790.91
0.1086,0.8914	-20785.57
0.1040,0.8960	-20760.03
0.1111,0.8889	-20762.78
0.1026,0.8974	-20781.75
0.1144,0.8856	-20740.98
0.0837,0.9163	-20714.06
0.1134,0.8866	-20775.58
0.1248,0.8752	-20833.65
0.1117,0.8883	-20771.18
0.1051,0.8949	-20777.18
0.1204,0.8796	-20821.15
0.0981,0.9019	-20745.03
0.1090,0.8910	-20766.66
0.0952,0.9048	-20765.72
0.1144,0.8856	-20800.33
0.1110,0.8890	-20791.89
0.1016,0.8984	-20784.10
0.1131,0.8869	-20804.37
0.1079,0.8921	-20779.24
0.1049,0.8951	-20766.47
0.1029,0.8971	-20788.20
0.0957,0.9043	-20754.34
0.1041,0.8959	-20809.53
0.0934,0.9066	-20764.05
0.1169,0.8831	-20790.51
0.0970,0.9030	-20716.16
0.0985,0.9015	-20778.20
0.0952,0.9048	-20713.93
0.1173,0.8827	-20802.70
0.1068,0.8932	-20770.75
0.1030,0.8970	-20794.69
0.0997,0.9003	-20744.91
0.0998,0.9002	-20718.51
0.0908,0.9092	-20746.61
0.1054,0.8946	-20770.75
0.1058,0.8942	-20766.47
0.1150,0.8850	-20824.87
0.1131,0.8869	-20773.48
0.1162,0.8838	-20774.15
0.0991,0.9009	-20758.19
0.1090,0.8910	-20779.27
0.1070,0.8930	-20783.49
0.1128,0.8872	-20794.05
0.1095,0.8905	-20775.10
0.1099,0.8901	-20800.23
0.1159,0.8841	-20790.33
0.1079,0.8921	-20739.10
0.1171,0.8829	-20828.92
0.1078,0.8922	-20762.33
0.0985,0.9015	-20784.84
0.1130,0.8870	-20845.58
0.1148,0.8852	-20784.03
0.1057,0.8943	-20798.50
0.1116,0.8884	-20775.31
0.1078,0.8922	-20791.92
0.0880,0.9120	-20698.61
0.1098,0.8902	-20773.03
0.1116,0.8884	-20771.16
0.1095,0.8905	-20781.39
0.1083,0.8917	-20791.90
0.0982,0.9018	-20736.15
0.1060,0.8940	-20809.12
0.1106,0.8894	-20771.03
0.1178,0.8822	-20804.78
0.0967,0.9033	-20754.13
0.1114,0.8886	-20771.13
0.1042,0.8958	-20807.36
0.1128,0.8872	-20798.17
0.1092,0.8908	-20758.29
0.1226,0.8774	-20788.04
0.1100,0.8900	-20781.41
0.1123,0.8877	-20794.02
0.1073,0.8927	-20789.83
0.1071,0.8929	-20808.94
0.1150,0.8850	-20779.97
0.1096,0.8904	-20764.63
0.1126,0.8874	-20769.27
0.1049,0.8951	-20772.90
0.1089,0.8911	-20775.06
0.1131,0.8869	-20787.89
0.1141,0.8859	-20792.12
0.1112,0.8888	-20773.19
0.1126,0.8874	-20816.74
0.0975,0.9025	-20767.36
0.0999,0.9001	-20751.50
0.1114,0.8886	-20796.05
0.1197,0.8803	-20795.12
0.1130,0.8870	-20783.76
0.1046,0.8954	-20787.94
0.1076,0.8924	-20787.70
0.1085,0.8915	-20775.04
0.1078,0.8922	-20787.69
0.1025,0.8975	-20768.75
0.1034,0.8966	-20777.31
0.0997,0.9003	-20731.71
0.1164,0.8836	-20798.52
0.0961,0.9039	-20754.25
0.1057,0.8943	-20766.47
0.1040,0.8960	-20777.26
0.1185,0.8815	-20788.83
0.1116,0.8884	-20802.28
0.1062,0.8938	-20766.48
0.0952,0.9048	-20731.94
0.1045,0.8955	-20768.63
0.1088,0.8912	-20800.29
0.1138,0.8862	-20806.45
0.1028,0.8972	-20744.89
0.0967,0.9033	-20783.19
0.0908,0.9092	-20707.45
0.1127,0.8873	-20763.09
0.1205,0.8795	-20791.34
0.0992,0.9008	-20780.24
0.0937,0.9063	-20723.08
0.1090,0.8910	-20747.75
0.1146,0.8854	-20798.31
0.0997,0.9003	-20802.13
0.1128,0.8872	-20765.17
0.1041,0.8959	-20762.18
0.0986,0.9014	-20775.98
0.1227,0.8773	-20833.31
0.1154,0.8846	-20796.35
0.1056,0.8944	-20764.33
0.0994,0.9006	-20753.74
0.1124,0.8876	-20827.08
0.1137,0.8863	-20798.23
0.1049,0.8951	-20775.05
0.1267,0.8733	-20834.04
0.1138,0.8862	-20800.29
0.1052,0.8948	-20800.73
0.1066,0.8934	-20755.86
0.1099,0.8901	-20750.03
0.1067,0.8933	-20775.00
0.1226,0.8774	-20815.59
0.0989,0.9011	-20764.84
0.0933,0.9067	-20723.14
0.1070,0.8930	-20738.94
0.1127,0.8873	-20787.86
0.1134,0.8866	-20769.41
0.1046,0.8954	-20777.21
0.1052,0.8948	-20781.45
0.0937,0.9063	-20736.70
0.1179,0.8821	-20812.85
0.1139,0.8861	-20781.84
0.1302,0.8698	-20840.65
0.0980,0.9020	-20740.60
0.1093,0.8907	-20793.97
0.0887,0.9113	-20733.42
0.1229,0.8771	-20799.93
0.1098,0.8902	-20789.77
0.1263,0.8737	-20801.07
0.1056,0.8944	-20766.47
0.0933,0.9067	-20752.69
0.0944,0.9056	-20709.44
0.1121,0.8879	-20785.73
0.0992,0.9008	-20753.76
0.1143,0.8857	-20818.75
0.1013,0.8987	-20773.24
0.1076,0.8924	-20734.81
0.1091,0.8909	-20793.97
0.0955,0.9045	-20716.17
0.1076,0.8924	-20785.59
0.1201,0.8799	-20807.17
0.1009,0.8991	-20812.66
0.1119,0.8881	-20812.64
0.1061,0.8939	-20755.82
0.1092,0.8908	-20787.67
0.1164,0.8836	-20853.25
0.1113,0.8887	-20800.21
0.0998,0.9002	-20797.68
0.1089,0.8911	-20779.26
0.1065,0.8935	-20775.00
0.1211,0.8789	-20809.36
0.1178,0.8822	-20812.83
0.1137,0.8863	-20777.69
0.1023,0.8977	-20744.87
0.1212,0.8788	-20805.42
0.1163,0.8837	-20796.48
0.1157,0.8843	-20794.35
0.1035,0.8965	-20781.63
0.1165,0.8835	-20766.10
0.1026,0.8974	-20757.90
0.1028,0.8972	-20740.56
0.1017,0.8983	-20786.26
0.1113,0.8887	-20775.27
0.1182,0.8818	-20818.90
0.1107,0.8893	-20754.38
0.1133,0.8867	-20804.37
0.1152,0.8848	-20800.40
0.1027,0.8973	-20764.40
0.1185,0.8815	-20806.90
0.1206,0.8794	-20801.30
0.1083,0.8917	-20779.25
0.0979,0.9021	-20791.67
0.1025,0.8975	-20838.17
0.0946,0.9054	-20732.02
0.1075,0.8925	-20783.47
0.1081,0.8919	-20779.24
0.1094,0.8906	-20773.00
0.1057,0.8943	-20757.93
0.1114,0.8886	-20769.06
0.1012,0.8988	-20760.15
0.1098,0.8902	-20798.15
0.1177,0.8823	-20824.91
0.1086,0.8914	-20791.89
0.1082,0.8918	-20751.82
0.1106,0.8894	-20781.45
0.1185,0.8815	-20816.93
0.1093,0.8907	-20747.82
0.1079,0.8921	-20766.57
0.1168,0.8832	-20806.67
0.1049,0.8951	-20747.18
0.1070,0.8930	-20751.66
0.1113,0.8887	-20812.67
0.1085,0.8915	-20758.19
0.1074,0.8926	-20777.12
0.1155,0.8845	-20824.87
0.1080,0.8920	-20747.58
0.0967,0.9033	-20796.58
0.1151,0.8849	-20812.63
0.1139,0.8861	-20767.48
0.1027,0.8973	-20714.55
0.1146,0.8854	-20810.57
0.1078,0.8922	-20739.08
0.1026,0.8974	-20805.61
0.1067,0.8933	-20789.87
0.1060,0.8940	-20764.35
0.0975,0.9025	-20785.15
0.1078,0.8922	-20787.69
0.1040,0.8960	-20783.72
0.1153,0.8847	-20767.82
0.1085,0.8915	-20760.30
0.1017,0.8983	-20781.90
0.1039,0.8961	-20766.49
0.0990,0.9010	-20758.21
0.1030,0.8970	-20779.53
0.1026,0.8974	-20747.05
0.1095,0.8905	-20793.96
0.1210,0.8790	-20811.32
0.1017,0.8983	-20742.69
0.1043,0.8957	-20781.53
0.1100,0.8900	-20785.59
0.1006,0.8994	-20768.97
0.1113,0.8887	-20798.13
0.0999,0.9001	-20802.05
0.1080,0.8920	-20772.91
0.1163,0.8837	-20816.76
0.1074,0.8926	-20743.24
0.1060,0.8940	-20762.21
0.1026,0.8974	-20729.70
0.0984,0.9016	-20747.22
0.1110,0.8890	-20812.69
0.1071,0.8929	-20796.21
0.1084,0.8916	-20768.72
0.1111,0.8889	-20762.78
0.1093,0.8907	-20791.87
0.0946,0.9054	-20759.12
0.1125,0.8875	-20798.16
0.1096,0.8904	-20756.26
0.1024,0.8976	-20731.85
0.1132,0.8868	-20810.55
0.0977,0.9023	-20773.97
0.0997,0.9003	-20766.91
0.1006,0.8994	-20755.82
0.0965,0.9035	-20758.65
0.1119,0.8881	-20802.28
0.1137,0.8863	-20790.02
0.1077,0.8923	-20787.70
0.1033,0.8967	-20757.88
0.1072,0.8928	-20760.16
0.1038,0.8962	-20783.75
0.1001,0.8999	-20775.64
0.1010,0.8990	-20773.29
0.1098,0.8902	-20770.94
0.1061,0.8939	-20796.32
0.1129,0.8871	-20732.22
0.1154,0.8846	-20798.38
0.1025,0.8975	-20790.45
0.0970,0.9030	-20787.55
0.1085,0.8915	-20787.68
0.1049,0.8951	-20798.62
0.1107,0.8893	-20771.04
0.1211,0.8789	-20801.43
0.1262,0.8738	-20818.43
0.1032,0.8968	-20770.85
0.1079,0.8921	-20743.32
0.1117,0.8883	-20791.92
0.1037,0.8963	-20766.50
0.1090,0.8910	-20768.76
0.1088,0.8912	-20739.30
0.1030,0.8970	-20792.51
0.1025,0.8975	-20738.37
0.0979,0.9021	-20742.83
0.1111,0.8889	-20789.81
0.1227,0.8773	-20809.72
0.1197,0.8803	-20795.13
0.1027,0.8973	-20818.59
0.1059,0.8941	-20757.94
0.1115,0.8885	-20775.30
0.1153,0.8847	-20761.70
0.1011,0.8989	-20773.27
0.1093,0.8907	-20804.46
0.1099,0.8901	-20766.77
0.0983,0.9017	-20769.38
0.1107,0.8893	-20768.96
0.1161,0.8839	-20749.77
0.1126,0.8874	-20779.58
0.1198,0.8802	-20831.04
0.1115,0.8885	-20831.34
0.1128,0.8872	-20789.93
0.1013,0.8987	-20788.52
0.1053,0.8947	-20736.52
0.1118,0.8882	-20812.64
0.1136,0.8864	-20800.28
0.1072,0.8928	-20766.52
0.0964,0.9036	-20769.86
0.1081,0.8919	-20775.02
0.1034,0.8966	-20781.64
0.1027,0.8973	-20777.40
0.1102,0.8898	-20793.96
0.1002,0.8998	-20744.89
0.0933,0.9067	-20750.42
0.1170,0.8830	-20770.30
0.1007,0.8993	-20755.82
0.1092,0.8908	-20766.69
0.1087,0.8913	-20787.67
0.1086,0.8914	-20781.36
0.1151,0.8849	-20786.12
0.1155,0.8845	-20778.03
0.1110,0.8890	-20791.89
0.1088,0.8912	-20770.85
0.1054,0.8946	-20796.41
0.1063,0.8937	-20721.76
0.1103,0.8897	-20760.55
0.1140,0.8860	-20814.66
0.1073,0.8927	-20777.12
0.1073,0.8927	-20758.05
0.1084,0.8916	-20789.79
0.1056,0.8944	-20764.33
0.1063,0.8937	-20809.07
0.1138,0.8862	-20826.97
0.1099,0.8901	-20812.78
0.1103,0.8897	-20771.00
0.1095,0.8905	-20804.44
0.1078,0.8922	-20789.81
0.1020,0.8980	-20805.77
0.1093,0.8907	-20787.67
0.1101,0.8899	-20762.61
0.1033,0.8967	-20777.33
0.0893,0.9107	-20756.46
0.1117,0.8883	-20791.91
0.1094,0.8906	-20817.03
0.1038,0.8962	-20792.37
0.0953,0.9047	-20731.93
0.1162,0.8838	-20782.26
0.1012,0.8988	-20705.55
0.1176,0.8824	-20784.59
0.1074,0.8926	-20775.00
0.1123,0.8877	-20802.29
0.0897,0.9103	-20719.20
0.1021,0.8979	-20753.57
0.1025,0.8975	-20799.13
0.1303,0.8697	-20817.89
0.1066,0.8934	-20775.00
0.1108,0.8892	-20775.22
0.0951,0.9049	-20704.92
0.1110,0.8890	-20766.92
0.1039,0.8961	-20785.88
0.1080,0.8920	-20770.80
0.1048,0.8952	-20802.93
0.1094,0.8906	-20791.87
0.0994,0.9006	-20714.07
0.1083,0.8917	-20779.25
0.1241,0.8759	-20790.54
0.1093,0.8907	-20785.58
0.1084,0.8916	-20796.11
0.0987,0.9013	-20751.61
0.1018,0.8982	-20744.87
0.1059,0.8941	-20762.21
0.1174,0.8826	-20857.18
0.1059,0.8941	-20747.27
0.1063,0.8937	-20749.46
0.1012,0.8988	-20781.99
0.1105,0.8895	-20775.18
0.1064,0.8936	-20798.40
0.1040,0.8960	-20783.72
0.1017,0.8983	-20727.44
0.1137,0.8863	-20800.28
0.1150,0.8850	-20784.06
0.1037,0.8963	-20734.15
0.1068,0.8932	-20781.37
0.1017,0.8983	-20760.12
0.1059,0.8941	-20775.01
0.1267,0.8733	-20839.82
0.0917,0.9083	-20705.05
0.1000,0.9000	-20751.48
0.1024,0.8976	-20766.59
0.1151,0.8849	-20784.08
0.0993,0.9007	-20740.52
0.1253,0.8747	-20847.34
0.1050,0.8950	-20777.18
0.1065,0.8935	-20738.85
0.1094,0.8906	-20781.38
0.1160,0.8840	-20810.65
0.1088,0.8912	-20762.44
0.1194,0.8806	-20827.03
0.1107,0.8893	-20760.62
0.1033,0.8967	-20768.69
0.0990,0.9010	-20744.95
0.1062,0.8938	-20800.56
0.0970,0.9030	-20769.70
0.1085,0.8915	-20758.19
0.1087,0.8913	-20806.61
0.0955,0.9045	-20731.91
0.1009,0.8991	-20782.06
0.1102,0.8898	-20766.81
0.1062,0.8938	-20755.83
0.1136,0.8864	-20775.63
0.1159,0.8841	-20810.64
0.1049,0.8951	-20732.16
0.1064,0.8936	-20796.28
0.1024,0.8976	-20779.60
0.1036,0.8964	-20798.88
0.1018,0.8982	-20747.04
0.1129,0.8871	-20761.07
0.1128,0.8872	-20758.98
0.1158,0.8842	-20749.65
0.1026,0.8974	-20749.22
0.1090,0.8910	-20770.86
0.1047,0.8953	-20745.01
0.1062,0.8938	-20743.04
0.1128,0.8872	-20769.30
0.1176,0.8824	-20810.80
0.0888,0.9112	-20726.42
0.1147,0.8853	-20804.45
0.1041,0.8959	-20764.34
0.1059,0.8941	-20779.28
0.1150,0.8850	-20810.59
0.1027,0.8973	-20788.25
0.0864,0.9136	-20729.59
0.1060,0.8940	-20787.80
0.1028,0.8972	-20792.55
0.0980,0.9020	-20771.67
0.1102,0.8898	-20791.87
0.1103,0.8897	-20775.17
0.0982,0.9018	-20767.19
0.1076,0.8924	-20779.24
0.1160,0.8840	-20788.32
0.1031,0.8969	-20814.14
0.0994,0.9006	-20777.99
0.1142,0.8858	-20765.49
0.1188,0.8812	-20822.97
0.1060,0.8940	-20764.34
0.1070,0.8930	-20762.27
0.1024,0.8976	-20773.10
0.0994,0.9006	-20775.78
0.1177,0.8823	-20784.61
0.1160,0.8840	-20774.09
0.1202,0.8798	-20803.21
0.0942,0.9058	-20720.76
0.1067,0.8933	-20768.62
0.1086,0.8914	-20779.26
0.1076,0.8924	-20766.55
0.1047,0.8953	-20775.06
0.0986,0.9014	-20725.07
0.1085,0.8915	-20817.16
0.1092,0.8908	-20789.77
0.1140,0.8860	-20785.95
0.1100,0.8900	-20773.05
0.1102,0.8898	-20770.98
0.1050,0.8950	-20775.04
0.1075,0.8925	-20789.82
0.1148,0.8852	-20826.92
0.1145,0.8855	-20759.42
0.1014,0.8986	-20738.32
0.1171,0.8829	-20810.74
0.1026,0.8974	-20775.24
0.1047,0.8953	-20749.31
0.1217,0.8783	-20833.20
0.1027,0.8973	-20770.89
0.1125,0.8875	-20785.77
0.1101,0.8899	-20739.63
0.1133,0.8867	-20810.55
0.1035,0.8965	-20775.14
0.1183,0.8817	-20786.78
0.1025,0.8975	-20731.87
0.1048,0.8952	-20781.49
0.1193,0.8807	-20799.03
0.1164,0.8836	-20820.82
0.0878,0.9122	-20729.08
0.1076,0.8924	-20732.70
0.0907,0.9093	-20739.74
0.1126,0.8874	-20787.84
0.1221,0.8779	-20839.17
0.1204,0.8796	-20783.36
0.1031,0.8969	-20729.76
0.1074,0.8926	-20781.36
0.0962,0.9038	-20754.23
0.1098,0.8902	-20802.33
0.0940,0.9060	-20752.51
0.1257,0.8743	-20835.76
0.1172,0.8828	-20790.57
0.1251,0.8749	-20792.87
0.1002,0.8998	-20755.86
0.0991,0.9009	-20773.63
0.1029,0.8971	-20768.71
0.1148,0.8852	-20788.11
0.1072,0.8928	-20819.52
0.0995,0.9005	-20777.95
0.1103,0.8897	-20779.34
0.1115,0.8885	-20810.59
0.0996,0.9004	-20777.94
0.1082,0.8918	-20766.59
0.1031,0.8969	-20727.60
0.1037,0.8963	-20747.09
0.1047,0.8953	-20770.76
0.1202,0.8798	-20789.26
0.1086,0.8914	-20756.10
0.1047,0.8953	-20772.91
0.1131,0.8869	-20802.31
0.1062,0.8938	-20798.43
0.1077,0.8923	-20749.64
0.1229,0.8771	-20843.17
0.1211,0.8789	-20777.63
0.1063,0.8937	-20760.10
0.1180,0.8820	-20766.58
0.1091,0.8909	-20781.37
0.0941,0.9059	-20775.11
0.1150,0.8850	-20788.14
0.1246,0.8754	-20802.42
0.1050,0.8950	-20777.19
0.1182,0.8818	-20792.79
0.1034,0.8966	-20729.80
0.1098,0.8902	-20773.03
0.1062,0.8938	-20787.78
0.1015,0.8985	-20766.67
0.0969,0.9031	-20771.96
0.1123,0.8877	-20827.10
0.0970,0.9030	-20722.85
0.0950,0.9050	-20754.50
0.1073,0.8927	-20804.66
0.0899,0.9101	-20763.15
0.1040,0.8960	-20770.80
0.0987,0.9013	-20795.85
0.1147,0.8853	-20802.40
0.0995,0.9005	-20733.91
0.1120,0.8880	-20816.78
0.1022,0.8978	-20797.03
0.1067,0.8933	-20813.25
0.1101,0.8899	-20791.87
0.1200,0.8800	-20805.16
0.0997,0.9003	-20731.70
0.1041,0.8959	-20772.94
0.1036,0.8964	-20770.82
0.1096,0.8904	-20789.77
0.1029,0.8971	-20762.22
0.1260,0.8740	-20820.33
0.1065,0.8935	-20815.41
0.1004,0.8996	-20742.69
0.1123,0.8877	-20785.75
0.0970,0.9030	-20731.77
0.1078,0.8922	-20804.60
0.1128,0.8872	-20767.23
0.1153,0.8847	-20778.00
0.1158,0.8842	-20778.10
0.1224,0.8776	-20809.65
0.1088,0.8912	-20751.92
0.1132,0.8868	-20800.26
0.1100,0.8900	-20808.59
0.1038,0.8962	-20792.36
0.1141,0.8859	-20779.81
0.1007,0.8993	-20790.85
0.1039,0.8961	-20757.88
0.1082,0.8918	-20739.16
0.1213,0.8787	-20852.96
0.1112,0.8888	-20781.50
0.1015,0.8985	-20749.23
0.1039,0.8961	-20753.57
0.0974,0.9026	-20758.47
0.1060,0.8940	-20775.01
0.1187,0.8813	-20794.90
0.1056,0.8944	-20757.92
0.1109,0.8891	-20798.13
0.1157,0.8843	-20818.76
0.1046,0.8954	-20787.95
0.1156,0.8844	-20806.56
0.1096,0.8904	-20789.77
0.1078,0.8922	-20772.90
0.1097,0.8903	-20768.83
0.1064,0.8936	-20775.00
0.1107,0.8893	-20741.88
0.1132,0.8868	-20769.38
0.1133,0.8867	-20765.29
0.1108,0.8892	-20814.79
0.1144,0.8856	-20804.42
0.1069,0.8931	-20779.24
0.1210,0.8790	-20817.27
0.1078,0.8922	-20783.47
0.1074,0.8926	-20785.59
0.1015,0.8985	-20753.59
0.1057,0.8943	-20798.50
0.1033,0.8967	-20773.00
0.1156,0.8844	-20818.76
0.1109,0.8891	-20783.56
0.1133,0.8867	-20792.03
0.0999,0.9001	-20802.07
0.1135,0.8865	-20746.81
0.1027,0.8973	-20729.72
0.1228,0.8772	-20776.33
0.1078,0.8922	-20772.90
0.1062,0.8938	-20775.00
0.1130,0.8870	-20769.34
0.1124,0.8876	-20771.29
0.1018,0.8982	-20718.73
0.1205,0.8795	-20821.17
0.1165,0.8835	-20780.30
0.0976,0.9024	-20758.44
0.1218,0.8782	-20809.49
0.1191,0.8809	-20770.99
0.1113,0.8887	-20791.90
0.1096,0.8904	-20783.49
0.1062,0.8938	-20755.83
0.1008,0.8992	-20760.19
0.1148,0.8852	-20794.23
0.1066,0.8934	-20721.85
0.1180,0.8820	-20830.96
0.1109,0.8891	-20721.09
0.0999,0.9001	-20727.31
0.1083,0.8917	-20777.14
0.1113,0.8887	-20820.98
0.0983,0.9017	-20771.61
0.1101,0.8899	-20762.61
0.1053,0.8947	-20757.91
0.0971,0.9029	-20734.00
0.0997,0.9003	-20753.71
0.1129,0.8871	-20791.99
0.0972,0.9028	-20785.23
0.0971,0.9029	-20705.01
0.1064,0.8936	-20789.90
0.1062,0.8938	-20721.76
0.0885,0.9115	-20717.19
0.1177,0.8823	-20778.59
0.0983,0.9017	-20780.47
0.0968,0.9032	-20734.02
0.0991,0.9009	-20711.84
0.1046,0.8954	-20768.62
0.0927,0.9073	-20716.38
0.1112,0.8888	-20806.44
0.0892,0.9108	-20719.32
0.1222,0.8778	-20837.20
0.0987,0.9013	-20775.95
0.0976,0.9024	-20727.29
0.1056,0.8944	-20772.88
0.1004,0.8996	-20766.81
0.1061,0.8939	-20785.66
0.1104,0.8896	-20758.48
0.1151,0.8849	-20800.39
0.1134,0.8866	-20804.38
0.0930,0.9070	-20725.45
0.0952,0.9048	-20761.21
0.1008,0.8992	-20720.79
0.1066,0.8934	-20779.25
0.1192,0.8808	-20837.01
0.0993,0.9007	-20764.78
0.0980,0.9020	-20760.57
0.1088,0.8912	-20815.01
0.1059,0.8941	-20770.74
0.1021,0.8979	-20740.52
0.1134,0.8866	-20771.47
0.0877,0.9123	-20731.44
0.1131,0.8869	-20787.89
0.1014,0.8986	-20762.32
0.1071,0.8929	-20741.06
0.1179,0.8821	-20754.49
0.1108,0.8892	-20771.06
0.0950,0.9050	-20754.51
0.1085,0.8915	-20794.00
0.0863,0.9137	-20748.49
0.1105,0.8895	-20841.93
0.1020,0.8980	-20792.73
0.1149,0.8851	-20802.42
0.0931,0.9069	-20725.44
0.0982,0.9018	-20747.24
0.0929,0.9071	-20739.14
0.1048,0.8952	-20777.20
0.0989,0.9011	-20767.06
0.1058,0.8942	-20770.74
0.1066,0.8934	-20796.26
0.0999,0.9001	-20769.07
0.1167,0.8833	-20786.42
0.1089,0.8911	-20783.47
0.1013,0.8987	-20749.23
0.1158,0.8842	-20796.40
0.1090,0.8910	-20783.47
0.0903,0.9097	-20716.76
0.1164,0.8836	-20786.35
0.1205,0.8795	-20815.21
0.1029,0.8971	-20753.56
0.1115,0.8885	-20802.28
0.1098,0.8902	-20808.61
0.1053,0.8947	-20770.75
0.1041,0.8959	-20800.93
0.1268,0.8732	-20818.62
