#isoforms=['exon:trans3:3_exon:trans3:2_exon:trans3:1','exon:trans2:3_exon:trans2:2_exon:trans2:1']	exon_lens=('exon:trans3:3',300),('exon:trans3:2',500),('exon:trans3:1',250),('exon:trans2:3',300),('exon:trans2:2',600),('exon:trans2:1',250)	iters=5000	burn_in=500	lag=10	percent_accept=75.40	proposal_type=drift	counts=(0,0):11,(0,1):1683,(1,0):171,(1,1):1005	assigned_counts=0:270,1:2589	chrom=test1	strand=-	mRNA_starts=3000,3000	mRNA_ends=5299,5299
sampled_psi	log_score
0.1194,0.8806	-20793.05
0.1035,0.8965	-20768.67
0.1044,0.8956	-20770.78
0.1151,0.8849	-20784.07
0.1035,0.8965	-20772.99
0.1089,0.8911	-20787.67
0.1144,0.8856	-20777.83
0.1118,0.8882	-20777.41
0.1029,0.8971	-20764.38
0.1025,0.8975	-20809.98
0.1064,0.8936	-20753.72
0.1102,0.8898	-20796.05
0.1112,0.8888	-20791.89
0.1148,0.8852	-20749.30
0.1030,0.8970	-20770.87
0.0922,0.9078	-20739.30
0.0992,0.9008	-20747.14
0.1062,0.8938	-20770.74
0.1060,0.8940	-20777.14
0.1127,0.8873	-20779.60
0.1108,0.8892	-20802.29
0.1011,0.8989	-20760.16
0.1126,0.8874	-20827.07
0.1048,0.8952	-20736.45
0.1185,0.8815	-20758.75
0.0987,0.9013	-20782.59
0.1108,0.8892	-20741.89
0.1094,0.8906	-20840.09
0.1075,0.8925	-20743.26
0.1055,0.8945	-20785.71
0.1024,0.8976	-20757.90
0.1247,0.8753	-20831.69
0.1257,0.8743	-20808.60
0.1122,0.8878	-20765.06
0.1131,0.8869	-20814.67
0.1197,0.8803	-20803.11
0.1143,0.8857	-20796.23
0.1308,0.8692	-20802.94
0.1083,0.8917	-20796.11
0.1168,0.8832	-20800.59
0.1115,0.8885	-20829.26
0.1109,0.8891	-20804.37
0.1073,0.8927	-20787.72
0.1109,0.8891	-20783.56
0.1135,0.8865	-20796.16
0.1183,0.8817	-20828.96
0.1002,0.8998	-20755.86
0.1032,0.8968	-20788.15
0.1165,0.8835	-20826.90
0.0988,0.9012	-20760.44
0.1027,0.8973	-20708.05
0.1114,0.8886	-20766.98
0.1155,0.8845	-20808.58
0.1013,0.8987	-20810.36
0.1020,0.8980	-20788.37
0.1070,0.8930	-20779.24
0.1224,0.8776	-20841.16
0.0960,0.9040	-20761.01
0.1124,0.8876	-20810.55
0.0991,0.9009	-20771.44
0.0995,0.9005	-20764.74
0.1100,0.8900	-20810.68
0.1063,0.8937	-20826.11
0.1079,0.8921	-20781.35
0.1125,0.8875	-20783.70
0.0923,0.9077	-20730.15
0.0995,0.9005	-20727.30
0.1152,0.8848	-20788.18
0.1090,0.8910	-20785.57
0.1125,0.8875	-20771.32
0.1112,0.8888	-20791.89
0.0981,0.9019	-20711.75
0.1092,0.8908	-20791.87
0.1080,0.8920	-20781.35
0.1028,0.8972	-20766.56
0.1148,0.8852	-20788.10
0.1129,0.8871	-20802.30
0.1163,0.8837	-20768.09
0.1092,0.8908	-20779.28
0.1106,0.8894	-20779.37
0.0990,0.9010	-20751.58
0.1186,0.8814	-20800.89
0.1196,0.8804	-20789.11
0.1196,0.8804	-20777.14
0.0946,0.9054	-20786.25
0.1089,0.8911	-20764.55
0.1089,0.8911	-20758.25
0.0932,0.9068	-20741.35
0.1115,0.8885	-20810.59
0.1220,0.8780	-20791.78
0.0962,0.9038	-20731.83
0.1081,0.8919	-20787.69
0.1170,0.8830	-20828.92
0.0991,0.9009	-20791.31
0.0992,0.9008	-20738.32
0.1193,0.8807	-20809.02
0.0986,0.9014	-20718.43
0.1128,0.8872	-20756.92
0.1027,0.8973	-20766.56
0.1040,0.8960	-20695.42
0.1048,0.8952	-20783.63
0.1279,0.8721	-20815.11
0.1138,0.8862	-20802.34
0.0972,0.9028	-20783.00
0.1151,0.8849	-20757.56
0.0962,0.9038	-20754.24
0.1010,0.8990	-20760.17
0.1028,0.8972	-20781.72
0.1170,0.8830	-20766.26
0.1102,0.8898	-20791.87
0.1109,0.8891	-20791.88
0.0980,0.9020	-20771.68
0.1052,0.8948	-20800.73
0.0899,0.9101	-20770.09
0.1088,0.8912	-20787.67
0.1073,0.8927	-20781.36
0.1124,0.8876	-20810.56
0.1044,0.8956	-20785.82
0.1123,0.8877	-20771.28
0.0914,0.9086	-20751.00
0.1073,0.8927	-20726.28
0.1126,0.8874	-20783.71
0.1048,0.8952	-20779.35
0.0970,0.9030	-20742.92
0.1203,0.8797	-20825.12
0.1014,0.8986	-20779.77
0.1038,0.8962	-20751.41
0.1194,0.8806	-20795.06
0.0942,0.9058	-20738.87
0.0988,0.9012	-20782.55
0.1154,0.8846	-20769.88
0.0995,0.9005	-20733.91
0.1135,0.8865	-20779.71
0.1136,0.8864	-20783.84
0.1093,0.8907	-20781.38
0.1052,0.8948	-20805.00
0.1076,0.8924	-20749.62
0.1017,0.8983	-20812.39
0.0996,0.9004	-20773.54
0.1073,0.8927	-20758.06
0.1124,0.8876	-20835.35
0.1040,0.8960	-20770.80
0.1052,0.8948	-20792.15
0.1084,0.8916	-20779.25
0.1107,0.8893	-20791.88
0.0926,0.9074	-20757.47
0.1146,0.8854	-20845.33
0.1039,0.8961	-20760.03
0.1127,0.8873	-20783.72
0.1149,0.8851	-20788.13
0.1028,0.8972	-20751.39
0.1034,0.8966	-20760.04
0.1037,0.8963	-20742.78
0.1013,0.8987	-20755.78
0.1025,0.8975	-20734.03
0.1108,0.8892	-20768.98
0.0985,0.9015	-20736.13
0.1107,0.8893	-20825.21
0.1009,0.8991	-20786.43
0.1140,0.8860	-20790.05
0.1147,0.8853	-20800.36
0.0946,0.9054	-20781.71
0.1172,0.8828	-20774.41
0.1091,0.8909	-20770.87
0.1050,0.8950	-20740.76
0.1156,0.8844	-20792.30
0.1053,0.8947	-20755.77
0.1002,0.8998	-20784.41
0.1148,0.8852	-20781.98
0.1111,0.8889	-20823.08
0.1037,0.8963	-20738.47
0.1196,0.8804	-20813.07
0.1020,0.8980	-20764.44
0.1089,0.8911	-20796.08
0.0952,0.9048	-20776.99
0.1037,0.8963	-20775.13
0.1155,0.8845	-20812.65
0.1041,0.8959	-20796.63
0.1097,0.8903	-20793.96
0.0915,0.9085	-20746.40
0.1139,0.8861	-20783.89
0.1015,0.8985	-20779.76
0.1049,0.8951	-20775.05
0.1006,0.8994	-20749.26
0.1079,0.8921	-20787.69
0.1005,0.8995	-20797.48
0.1114,0.8886	-20771.13
0.0983,0.9017	-20769.39
0.0992,0.9008	-20758.17
0.0954,0.9046	-20756.65
0.1168,0.8832	-20810.72
0.1049,0.8951	-20760.04
0.1116,0.8884	-20777.39
0.0921,0.9079	-20773.65
0.1048,0.8952	-20760.04
0.1016,0.8984	-20784.10
0.1047,0.8953	-20779.35
0.1132,0.8868	-20781.72
0.1071,0.8929	-20811.05
0.1065,0.8935	-20736.71
0.1119,0.8881	-20814.71
0.0984,0.9016	-20771.58
0.1125,0.8875	-20756.84
0.1094,0.8906	-20802.35
0.1114,0.8886	-20793.98
0.1025,0.8975	-20738.37
0.1037,0.8963	-20781.60
0.1121,0.8879	-20758.82
0.1153,0.8847	-20804.49
0.1130,0.8870	-20814.67
0.1184,0.8816	-20822.94
0.1043,0.8957	-20766.48
0.1078,0.8922	-20751.77
0.1140,0.8860	-20759.29
0.1187,0.8813	-20800.91
0.1064,0.8936	-20757.97
0.1000,0.9000	-20762.47
0.1029,0.8971	-20775.21
0.1031,0.8969	-20749.23
0.1057,0.8943	-20747.26
0.1268,0.8732	-20822.49
0.1172,0.8828	-20800.65
0.1087,0.8913	-20770.84
0.1087,0.8913	-20796.09
0.0923,0.9077	-20762.13
0.1125,0.8875	-20779.58
0.1219,0.8781	-20801.64
0.1161,0.8839	-20782.25
0.0996,0.9004	-20744.92
0.1060,0.8940	-20751.55
0.0942,0.9058	-20786.40
0.1110,0.8890	-20810.61
0.1089,0.8911	-20775.06
0.0992,0.9008	-20762.58
0.1068,0.8932	-20768.63
0.1011,0.8989	-20773.28
0.1153,0.8847	-20782.07
0.1133,0.8867	-20798.20
0.1135,0.8865	-20839.32
0.1058,0.8942	-20764.34
0.1035,0.8965	-20749.24
0.1004,0.8996	-20760.23
0.1108,0.8892	-20766.89
0.1047,0.8953	-20747.16
0.1062,0.8938	-20775.00
0.1105,0.8895	-20804.39
0.1186,0.8814	-20790.86
0.0943,0.9057	-20781.85
0.1076,0.8924	-20764.43
0.1093,0.8907	-20768.79
0.0968,0.9032	-20725.09
0.1101,0.8899	-20816.95
0.1099,0.8901	-20802.33
0.0973,0.9027	-20716.16
0.1019,0.8981	-20768.81
0.1126,0.8874	-20787.84
0.1080,0.8920	-20791.91
0.1160,0.8840	-20792.37
0.1131,0.8869	-20798.19
0.1050,0.8950	-20768.61
0.1220,0.8780	-20809.56
0.1021,0.8979	-20757.91
0.1101,0.8899	-20768.88
0.1053,0.8947	-20787.86
0.1186,0.8814	-20780.83
0.1019,0.8981	-20764.45
0.1116,0.8884	-20818.88
0.1251,0.8749	-20820.09
0.1119,0.8881	-20785.71
0.1087,0.8913	-20802.40
0.1214,0.8786	-20815.35
0.1053,0.8947	-20796.42
0.1048,0.8952	-20787.92
0.1062,0.8938	-20760.09
0.1006,0.8994	-20782.12
0.1102,0.8898	-20810.66
0.1202,0.8798	-20775.34
0.0997,0.9003	-20749.31
0.0956,0.9044	-20716.17
0.1038,0.8962	-20792.36
0.1215,0.8785	-20797.57
0.1185,0.8815	-20822.95
0.1062,0.8938	-20762.22
0.1029,0.8971	-20781.70
0.0932,0.9068	-20750.46
0.1169,0.8831	-20790.50
0.1043,0.8957	-20792.29
0.1176,0.8824	-20804.75
0.0900,0.9100	-20753.83
0.1083,0.8917	-20800.33
0.0996,0.9004	-20764.73
0.1145,0.8855	-20771.71
0.1081,0.8919	-20764.47
0.1266,0.8734	-20816.62
0.0917,0.9083	-20755.50
0.1179,0.8821	-20796.75
0.1131,0.8869	-20779.66
0.1129,0.8871	-20767.25
0.1006,0.8994	-20758.02
0.1107,0.8893	-20785.63
0.1076,0.8924	-20777.12
0.1098,0.8902	-20789.77
0.0955,0.9045	-20758.88
0.0974,0.9026	-20745.10
0.1055,0.8945	-20753.64
0.1045,0.8955	-20777.22
0.1162,0.8838	-20798.49
0.1033,0.8967	-20779.49
0.1114,0.8886	-20785.67
0.1104,0.8896	-20762.66
0.1034,0.8966	-20755.72
0.1036,0.8964	-20775.14
0.1148,0.8852	-20818.75
0.0979,0.9021	-20800.57
0.1017,0.8983	-20766.65
0.1026,0.8974	-20790.42
0.1038,0.8962	-20747.10
0.1083,0.8917	-20743.42
0.1127,0.8873	-20785.79
0.1170,0.8830	-20802.65
0.1043,0.8957	-20796.59
0.1088,0.8912	-20789.78
0.1036,0.8964	-20768.67
0.1119,0.8881	-20802.28
0.1097,0.8903	-20766.74
0.1119,0.8881	-20748.42
0.0985,0.9015	-20787.07
0.1130,0.8870	-20775.52
0.1094,0.8906	-20796.06
0.1054,0.8946	-20766.47
0.0990,0.9010	-20722.87
0.0980,0.9020	-20751.70
0.0926,0.9074	-20793.98
0.1135,0.8865	-20814.66
0.1121,0.8879	-20771.24
0.1092,0.8908	-20796.07
0.1156,0.8844	-20780.09
0.1006,0.8994	-20749.26
0.1069,0.8931	-20772.88
0.1130,0.8870	-20785.82
0.0987,0.9013	-20753.82
0.1142,0.8858	-20798.27
0.1188,0.8812	-20832.99
0.1083,0.8917	-20753.95
0.1084,0.8916	-20789.79
0.1061,0.8939	-20755.82
0.1001,0.8999	-20758.06
0.1150,0.8850	-20808.55
0.1129,0.8871	-20800.24
0.1086,0.8914	-20806.62
0.1073,0.8927	-20785.60
0.0938,0.9062	-20738.94
0.1086,0.8914	-20764.52
0.1071,0.8929	-20758.03
0.1102,0.8898	-20764.71
0.1069,0.8931	-20745.28
0.0976,0.9024	-20782.91
0.1089,0.8911	-20793.98
0.1112,0.8888	-20841.77
0.1139,0.8861	-20771.57
0.1014,0.8986	-20810.30
0.1135,0.8865	-20761.22
0.1018,0.8982	-20771.00
0.1099,0.8901	-20791.87
0.1182,0.8818	-20810.86
0.1108,0.8892	-20787.72
0.1029,0.8971	-20727.57
0.1130,0.8870	-20767.27
0.1023,0.8977	-20747.05
0.1091,0.8909	-20762.48
0.1021,0.8979	-20775.31
0.1022,0.8978	-20794.84
0.1207,0.8793	-20825.16
0.1064,0.8936	-20740.95
0.1126,0.8874	-20761.02
0.1037,0.8963	-20783.76
0.1145,0.8855	-20814.66
0.0935,0.9065	-20732.19
0.1112,0.8888	-20783.58
0.1115,0.8885	-20789.83
0.1087,0.8913	-20840.29
0.1036,0.8964	-20772.98
0.0977,0.9023	-20778.41
0.0955,0.9045	-20725.16
0.1173,0.8827	-20790.58
0.1167,0.8833	-20790.46
0.1137,0.8863	-20769.49
0.1092,0.8908	-20777.18
0.1019,0.8981	-20725.28
0.0970,0.9030	-20767.46
0.1157,0.8843	-20812.66
0.1062,0.8938	-20789.91
0.1124,0.8876	-20816.76
0.1165,0.8835	-20835.00
0.0952,0.9048	-20722.94
0.0853,0.9147	-20699.23
0.1230,0.8770	-20796.03
0.1051,0.8949	-20730.06
0.1140,0.8860	-20806.45
0.1166,0.8834	-20747.93
0.1065,0.8935	-20813.28
0.1091,0.8909	-20802.37
0.1018,0.8982	-20740.51
0.1113,0.8887	-20779.44
0.1123,0.8877	-20785.75
0.1153,0.8847	-20808.57
0.0965,0.9035	-20734.05
0.1034,0.8966	-20757.88
0.0968,0.9032	-20765.30
0.1129,0.8871	-20734.27
0.1094,0.8906	-20775.09
0.1151,0.8849	-20782.03
0.0938,0.9062	-20738.94
0.0980,0.9020	-20751.70
0.1051,0.8949	-20777.18
0.1008,0.8992	-20777.70
0.1127,0.8873	-20822.93
0.0985,0.9015	-20722.85
0.0892,0.9108	-20747.22
0.1079,0.8921	-20779.24
0.1102,0.8898	-20745.91
0.1068,0.8932	-20768.63
0.1140,0.8860	-20800.30
0.1129,0.8871	-20816.73
0.1029,0.8971	-20751.39
0.1087,0.8913	-20789.78
0.1180,0.8820	-20808.83
0.1043,0.8957	-20762.18
0.1065,0.8935	-20772.87
0.1110,0.8890	-20773.15
0.1123,0.8877	-20800.22
0.1125,0.8875	-20791.96
0.1247,0.8753	-20825.83
0.0983,0.9017	-20793.75
0.1041,0.8959	-20777.25
0.0961,0.9039	-20734.09
0.1204,0.8796	-20803.26
0.0988,0.9012	-20773.71
0.1241,0.8759	-20790.54
0.1004,0.8996	-20727.34
0.1080,0.8920	-20796.13
0.1118,0.8882	-20814.72
0.1170,0.8830	-20810.73
0.1064,0.8936	-20777.13
0.1203,0.8797	-20803.22
0.1177,0.8823	-20742.34
0.1001,0.8999	-20762.46
0.1076,0.8924	-20775.01
0.1040,0.8960	-20764.34
0.1197,0.8803	-20847.00
0.1128,0.8872	-20794.05
0.1033,0.8967	-20762.20
0.1061,0.8939	-20800.57
0.1022,0.8978	-20753.56
0.1083,0.8917	-20787.68
0.1013,0.8987	-20773.25
0.1146,0.8854	-20790.13
0.1024,0.8976	-20747.05
0.1152,0.8848	-20802.44
0.0968,0.9032	-20745.19
0.1137,0.8863	-20790.02
0.1152,0.8848	-20759.63
0.1040,0.8960	-20755.72
0.1108,0.8892	-20735.66
0.1064,0.8936	-20751.59
0.1025,0.8975	-20740.54
0.1077,0.8923	-20758.10
0.1069,0.8931	-20719.79
0.0997,0.9003	-20751.51
0.1071,0.8929	-20772.88
0.1062,0.8938	-20787.78
0.1073,0.8927	-20781.36
0.1019,0.8981	-20740.52
0.1089,0.8911	-20768.76
0.0906,0.9094	-20725.93
0.1105,0.8895	-20791.87
0.1039,0.8961	-20768.65
0.1082,0.8918	-20787.68
0.1052,0.8948	-20787.87
0.1099,0.8901	-20773.04
0.1054,0.8946	-20779.30
0.1035,0.8965	-20794.57
0.1025,0.8975	-20762.24
0.1040,0.8960	-20772.95
0.1124,0.8876	-20777.49
0.1127,0.8873	-20781.66
0.1061,0.8939	-20781.40
0.1099,0.8901	-20768.86
0.1061,0.8939	-20796.32
0.1081,0.8919	-20779.24
0.1036,0.8964	-20762.19
0.1068,0.8932	-20764.38
0.0980,0.9020	-20745.04
0.1211,0.8789	-20811.33
0.1074,0.8926	-20806.77
0.1151,0.8849	-20808.55
0.1177,0.8823	-20784.63
0.1033,0.8967	-20764.36
0.1135,0.8865	-20775.60
0.1125,0.8875	-20777.51
0.1087,0.8913	-20785.57
0.1115,0.8885	-20798.13
0.1122,0.8878	-20787.81
0.1114,0.8886	-20783.60
0.1071,0.8929	-20779.24
0.0917,0.9083	-20721.10
0.1102,0.8898	-20785.60
0.1046,0.8954	-20764.33
0.1064,0.8936	-20785.64
0.0999,0.9001	-20718.52
0.1089,0.8911	-20796.08
0.0929,0.9071	-20782.43
0.1193,0.8807	-20755.04
0.1169,0.8831	-20766.23
0.0962,0.9038	-20756.49
0.1079,0.8921	-20751.78
0.1142,0.8858	-20765.49
0.1185,0.8815	-20782.82
0.1063,0.8937	-20815.45
0.1047,0.8953	-20779.35
0.1121,0.8879	-20806.42
0.1075,0.8925	-20760.19
0.1129,0.8871	-20775.51
0.1171,0.8829	-20822.86
0.1048,0.8952	-20781.48
0.1024,0.8976	-20777.44
0.1082,0.8918	-20775.03
0.1118,0.8882	-20783.63
0.1095,0.8905	-20791.87
0.0947,0.9053	-20720.72
0.1077,0.8923	-20789.81
0.1106,0.8894	-20787.71
0.1004,0.8996	-20758.04
0.1107,0.8893	-20754.37
0.1103,0.8897	-20833.62
0.0933,0.9067	-20725.41
0.1086,0.8914	-20796.10
0.1084,0.8916	-20772.93
0.1080,0.8920	-20741.24
0.1033,0.8967	-20757.88
0.1059,0.8941	-20753.67
0.0948,0.9052	-20754.56
0.0983,0.9017	-20762.75
0.0992,0.9008	-20782.43
0.1003,0.8997	-20753.66
0.1004,0.8996	-20764.61
0.1058,0.8942	-20740.86
0.0990,0.9010	-20738.33
0.1118,0.8882	-20827.15
0.1061,0.8939	-20794.18
0.1114,0.8886	-20800.21
0.1112,0.8888	-20756.55
0.0965,0.9035	-20747.46
0.0910,0.9090	-20767.25
0.1126,0.8874	-20791.97
0.1018,0.8982	-20770.99
0.1064,0.8936	-20792.02
0.1122,0.8878	-20785.74
0.1081,0.8919	-20789.79
0.1120,0.8880	-20775.36
0.1082,0.8918	-20741.27
0.1108,0.8892	-20800.21
0.1071,0.8929	-20796.21
0.1075,0.8925	-20785.59
0.1199,0.8801	-20793.18
0.1058,0.8942	-20792.09
0.1229,0.8771	-20807.81
0.0997,0.9003	-20758.12
0.1005,0.8995	-20766.79
0.1062,0.8938	-20770.74
0.1053,0.8947	-20764.33
0.1072,0.8928	-20760.17
0.1053,0.8947	-20755.77
0.1217,0.8783	-20797.62
0.1027,0.8973	-20755.72
0.1038,0.8962	-20729.85
0.0999,0.9001	-20788.88
0.1137,0.8863	-20792.07
0.1113,0.8887	-20773.19
0.1227,0.8773	-20817.59
0.1163,0.8837	-20832.98
0.1090,0.8910	-20745.65
0.1034,0.8966	-20755.72
0.1128,0.8872	-20752.79
0.1041,0.8959	-20792.32
0.1140,0.8860	-20794.15
0.1241,0.8759	-20790.53
0.1146,0.8854	-20786.04
0.0912,0.9088	-20746.47
0.1140,0.8860	-20771.59
0.1068,0.8932	-20779.25
0.1056,0.8944	-20789.97
0.0968,0.9032	-20803.26
0.1148,0.8852	-20773.82
0.1055,0.8945	-20813.50
0.1101,0.8899	-20798.14
0.1116,0.8884	-20793.98
0.0971,0.9029	-20756.30
0.1089,0.8911	-20760.35
0.1162,0.8838	-20782.26
0.0976,0.9024	-20807.37
0.0996,0.9004	-20727.30
0.1108,0.8892	-20781.47
0.1095,0.8905	-20775.10
0.1112,0.8888	-20762.79
0.1001,0.8999	-20755.87
0.1090,0.8910	-20775.07
0.0926,0.9074	-20752.91
0.1143,0.8857	-20790.08
0.1097,0.8903	-20808.62
0.1053,0.8947	-20787.86
0.1127,0.8873	-20791.98
0.1192,0.8808	-20823.01
0.1006,0.8994	-20707.63
0.0936,0.9064	-20741.26
0.0978,0.9022	-20716.18
0.1057,0.8943	-20736.58
0.1081,0.8919	-20798.24
0.1202,0.8798	-20833.07
0.1081,0.8919	-20831.99
0.1138,0.8862	-20790.03
0.0942,0.9058	-20779.63
0.1103,0.8897	-20745.94
0.1088,0.8912	-20812.92
0.1040,0.8960	-20788.02
0.1035,0.8965	-20790.26
0.1062,0.8938	-20757.96
0.1019,0.8981	-20779.69
0.1209,0.8791	-20793.44
0.1236,0.8764	-20829.53
0.1061,0.8939	-20736.64
0.1096,0.8904	-20787.68
0.1057,0.8943	-20792.10
0.0987,0.9013	-20782.56
0.1235,0.8765	-20815.79
0.1055,0.8945	-20772.88
0.0915,0.9085	-20714.25
0.0988,0.9012	-20764.87
0.1145,0.8855	-20798.30
0.1083,0.8917	-20762.38
0.1242,0.8758	-20839.41
0.1154,0.8846	-20788.21
0.0907,0.9093	-20769.70
0.1103,0.8897	-20771.00
0.1183,0.8817	-20782.77
0.1102,0.8898	-20787.69
0.1116,0.8884	-20775.31
0.1177,0.8823	-20816.85
0.1145,0.8855	-20826.93
0.1066,0.8934	-20796.26
0.0993,0.9007	-20751.54
0.1156,0.8844	-20802.48
0.1091,0.8909	-20796.07
0.1060,0.8940	-20779.27
0.1035,0.8965	-20762.20
0.1212,0.8788	-20777.68
0.1010,0.8990	-20795.14
0.1078,0.8922	-20760.22
0.0957,0.9043	-20747.61
0.1044,0.8956	-20781.53
0.1158,0.8842	-20794.37
0.1120,0.8880	-20812.64
0.0969,0.9031	-20731.78
0.1263,0.8737	-20839.75
0.0977,0.9023	-20738.40
0.1092,0.8908	-20772.98
0.1020,0.8980	-20755.74
0.1113,0.8887	-20779.43
0.1011,0.8989	-20749.24
0.1170,0.8830	-20790.51
0.1048,0.8952	-20770.76
0.1087,0.8913	-20785.57
0.1009,0.8991	-20753.62
0.0988,0.9012	-20784.75
0.1030,0.8970	-20766.54
0.1137,0.8863	-20785.91
0.1046,0.8954	-20755.74
0.0994,0.9006	-20749.33
0.1066,0.8934	-20772.87
0.1304,0.8696	-20814.13
0.1303,0.8697	-20797.01
0.1006,0.8994	-20747.07
0.1086,0.8914	-20808.73
0.0998,0.9002	-20773.49
0.0971,0.9029	-20722.85
0.1114,0.8886	-20769.06
0.0963,0.9037	-20716.15
0.1153,0.8847	-20778.00
0.1041,0.8959	-20764.34
0.0929,0.9071	-20750.54
0.1174,0.8826	-20822.88
0.1048,0.8952	-20779.34
0.1051,0.8949	-20762.19
0.0983,0.9017	-20742.79
0.0995,0.9005	-20773.56
0.1050,0.8950	-20781.47
0.1193,0.8807	-20765.03
0.1021,0.8979	-20729.65
0.1049,0.8951	-20798.63
0.0938,0.9062	-20770.71
0.0950,0.9050	-20777.03
0.1019,0.8981	-20744.87
0.1076,0.8924	-20747.51
0.1146,0.8854	-20796.26
0.0949,0.9051	-20759.04
0.1027,0.8973	-20794.74
0.1032,0.8968	-20762.20
0.1035,0.8965	-20751.40
0.1065,0.8935	-20757.99
0.1135,0.8865	-20785.88
0.0945,0.9055	-20768.20
0.1175,0.8825	-20808.77
0.1010,0.8990	-20771.10
0.1039,0.8961	-20755.72
0.0969,0.9031	-20776.42
0.1126,0.8874	-20785.77
0.0959,0.9041	-20740.84
0.1057,0.8943	-20802.77
0.1080,0.8920	-20764.46
0.1073,0.8927	-20758.05
0.1037,0.8963	-20779.44
0.1058,0.8942	-20764.34
0.1038,0.8962	-20796.68
0.1142,0.8858	-20775.73
0.1082,0.8918	-20789.79
0.0953,0.9047	-20734.19
0.1083,0.8917	-20772.92
0.1015,0.8985	-20720.87
0.1162,0.8838	-20830.95
0.1036,0.8964	-20751.40
0.1022,0.8978	-20827.45
0.0960,0.9040	-20749.80
0.0922,0.9078	-20739.31
0.1081,0.8919	-20787.68
0.1037,0.8963	-20762.19
0.0995,0.9005	-20786.77
0.0968,0.9032	-20747.42
0.1027,0.8973	-20755.72
0.0916,0.9084	-20762.43
0.1019,0.8981	-20766.63
0.1118,0.8882	-20793.99
0.0974,0.9026	-20762.93
0.0931,0.9069	-20743.64
0.1086,0.8914	-20815.04
0.1118,0.8882	-20814.72
0.0896,0.9104	-20758.63
0.1019,0.8981	-20770.98
0.0966,0.9034	-20758.62
0.0969,0.9031	-20713.92
0.1041,0.8959	-20781.56
0.1110,0.8890	-20769.01
0.0910,0.9090	-20705.12
0.1066,0.8934	-20800.51
0.1091,0.8909	-20775.07
0.1083,0.8917	-20764.49
0.1087,0.8913	-20817.14
0.1078,0.8922	-20762.33
0.1022,0.8978	-20747.04
0.1122,0.8878	-20758.86
0.1008,0.8992	-20753.62
0.1105,0.8895	-20793.96
0.1172,0.8828	-20760.28
0.1071,0.8929	-20745.31
0.1095,0.8905	-20779.29
0.0941,0.9059	-20750.22
0.1127,0.8873	-20771.35
0.0991,0.9009	-20784.68
0.1080,0.8920	-20821.46
0.1027,0.8973	-20779.57
0.1020,0.8980	-20770.97
0.1159,0.8841	-20804.55
0.1085,0.8915	-20785.57
0.1145,0.8855	-20775.80
0.1095,0.8905	-20760.43
0.1079,0.8921	-20772.90
0.1029,0.8971	-20766.55
0.1120,0.8880	-20822.99
0.1154,0.8846	-20792.28
0.1046,0.8954	-20785.80
0.1065,0.8935	-20779.25
0.0998,0.9002	-20764.69
0.1192,0.8808	-20819.01
0.1045,0.8955	-20760.03
0.0977,0.9023	-20787.32
0.1142,0.8858	-20767.55
0.1069,0.8931	-20779.24
0.0999,0.9001	-20740.50
0.1053,0.8947	-20753.63
0.1091,0.8909	-20791.87
0.1138,0.8862	-20779.76
0.1077,0.8923	-20779.24
0.1189,0.8811	-20792.94
0.0964,0.9036	-20743.00
0.1046,0.8954	-20781.51
0.1098,0.8902	-20793.96
0.1122,0.8878	-20787.81
0.1023,0.8977	-20768.77
0.1177,0.8823	-20764.49
0.1008,0.8992	-20740.49
0.1049,0.8951	-20764.33
0.1053,0.8947	-20734.37
0.1215,0.8785	-20819.32
0.1005,0.8995	-20742.69
0.1067,0.8933	-20785.62
0.1035,0.8965	-20807.54
0.1154,0.8846	-20771.91
0.0958,0.9042	-20770.03
0.1066,0.8934	-20798.38
0.0951,0.9049	-20747.73
0.1102,0.8898	-20787.69
0.1061,0.8939	-20743.04
0.1099,0.8901	-20760.49
0.1129,0.8871	-20816.73
